Minimal R Export

Pixel,Wavenumber,Processed
1,229.68,9463.3
2,231.77,10062
3,233.85,10571.93
4,235.94,10949.17
5,238.02,11202.27
6,240.1,11369.4
7,242.18,11464.43
8,244.26,11470.63
9,246.34,11427.27
10,248.42,11389.53
11,250.5,11288.3
12,252.58,11166.43
13,254.66,11050.43
14,256.73,10908.87
15,258.8,10796.8
16,260.88,10702.1
17,262.95,10598.47
18,265.02,10534.67
19,267.09,10409.17
20,269.16,10320.9
21,271.23,10218.67
22,273.3,10089.27
23,275.37,10065.13
24,277.43,9913.87
25,279.5,9813.33
26,281.56,9745.83
27,283.63,9613.77
28,285.69,9509.97
29,287.75,9406.23
30,289.81,9335.43
31,291.87,9228.4
32,293.93,9123.97
33,295.99,9051.8
34,298.05,8961.87
35,300.1,8860.83
36,302.16,8813.2
37,304.21,8756.2
38,306.26,8707.4
39,308.32,8691.83
40,310.37,8620.53
41,312.42,8592.2
42,314.47,8553.5
43,316.52,8526.77
44,318.57,8518.97
45,320.61,8546.93
46,322.66,8555.53
47,324.7,8507.6
48,326.75,8498.13
49,328.79,8502.37
50,330.83,8485.67
51,332.88,8494.9
52,334.92,8524.27
53,336.96,8539.2
54,338.99,8513.57
55,341.03,8477.3
56,343.07,8529.97
57,345.11,8544.67
58,347.14,8561.43
59,349.17,8604.83
60,351.21,8570.33
61,353.24,8550.2
62,355.27,8584.07
63,357.3,8615.8
64,359.33,8608.6
65,361.36,8631.7
66,363.39,8653.73
67,365.41,8671.4
68,367.44,8650.47
69,369.47,8691.3
70,371.49,8706.5
71,373.51,8737.57
72,375.54,8838.03
73,377.56,8828.87
74,379.58,8850.97
75,381.6,8839.83
76,383.61,8903.03
77,385.63,8947.1
78,387.65,8958.87
79,389.66,9043.4
80,391.68,9048.5
81,393.69,9048.27
82,395.71,9082.37
83,397.72,9139.37
84,399.73,9169.57
85,401.74,9224.5
86,403.75,9293.13
87,405.76,9326.3
88,407.77,9347.3
89,409.77,9457.27
90,411.78,9479.37
91,413.78,9547.57
92,415.79,9590.3
93,417.79,9585.83
94,419.79,9594.47
95,421.79,9592.53
96,423.79,9626.83
97,425.79,9637.2
98,427.79,9643.87
99,429.79,9665.3
100,431.78,9652.33
101,433.78,9620.47
102,435.77,9655.4
103,437.77,9671.67
104,439.76,9701.17
105,441.75,9748.57
106,443.74,9761.37
107,445.73,9728.53
108,447.72,9715.73
109,449.71,9778.93
110,451.7,9793.73
111,453.68,9811.83
112,455.67,9842.23
113,457.65,9827.17
114,459.64,9866
115,461.62,9896.57
116,463.6,9889.9
117,465.58,9901.9
118,467.56,9936.93
119,469.54,9993.8
120,471.52,10000.9
121,473.49,10024.03
122,475.47,10087.1
123,477.44,10108.83
124,479.42,10100.07
125,481.39,10128.33
126,483.36,10131.83
127,485.34,10128.87
128,487.31,10052.57
129,489.28,10046.5
130,491.24,10007.6
131,493.21,9944.77
132,495.18,9888.83
133,497.14,9791.57
134,499.11,9735.57
135,501.07,9693.17
136,503.04,9591.47
137,505,9544.1
138,506.96,9543.63
139,508.92,9521.37
140,510.88,9487.87
141,512.84,9457.37
142,514.79,9485.77
143,516.75,9500.13
144,518.71,9503.07
145,520.66,9509.03
146,522.62,9490.6
147,524.57,9423.33
148,526.52,9438.93
149,528.47,9420.5
150,530.42,9414.8
151,532.37,9473.87
152,534.32,9478.13
153,536.27,9477.8
154,538.21,9458.7
155,540.16,9465.37
156,542.1,9435.27
157,544.04,9399
158,545.99,9365.47
159,547.93,9310.43
160,549.87,9261.17
161,551.81,9199.93
162,553.75,9156.87
163,555.69,9121.13
164,557.62,9123.3
165,559.56,9128.03
166,561.49,9072.5
167,563.43,9088.23
168,565.36,9074.47
169,567.29,9063.47
170,569.23,9033.5
171,571.16,9033.63
172,573.09,9033.3
173,575.01,8985.03
174,576.94,8956.73
175,578.87,8936.6
176,580.79,8969.83
177,582.72,8959.03
178,584.64,9005.43
179,586.57,8982.1
180,588.49,8990.33
181,590.41,9004.33
182,592.33,9042.43
183,594.25,9112.1
184,596.17,9132.63
185,598.08,9191.13
186,600,9211.3
187,601.92,9283.93
188,603.83,9349.13
189,605.74,9426.33
190,607.66,9494.63
191,609.57,9616.63
192,611.48,9710.03
193,613.39,9758.33
194,615.3,9847.33
195,617.21,9969
196,619.11,10058.03
197,621.02,10131.77
198,622.92,10262.13
199,624.83,10279.9
200,626.73,10269.43
201,628.63,10349.9
202,630.53,10389.27
203,632.44,10452.97
204,634.33,10513.4
205,636.23,10593.93
206,638.13,10689.57
207,640.03,10768.53
208,641.92,10976.97
209,643.82,11012.8
210,645.71,11056.37
211,647.61,11130.07
212,649.5,11215.77
213,651.39,11285.17
214,653.28,11405.9
215,655.17,11484.4
216,657.06,11573.8
217,658.94,11654.9
218,660.83,11796.43
219,662.72,11854.67
220,664.6,11937.73
221,666.48,12043.4
222,668.37,12126.5
223,670.25,12193.93
224,672.13,12249.87
225,674.01,12296.63
226,675.89,12338.13
227,677.77,12365.47
228,679.64,12431.03
229,681.52,12465.63
230,683.39,12445
231,685.27,12503.87
232,687.14,12493.83
233,689.01,12495.5
234,690.88,12530
235,692.76,12545.27
236,694.62,12542.27
237,696.49,12548.63
238,698.36,12576.1
239,700.23,12530.5
240,702.09,12556.03
241,703.96,12515.2
242,705.82,12507.53
243,707.68,12491.27
244,709.55,12463.37
245,711.41,12391.43
246,713.27,12340.4
247,715.13,12308.37
248,716.99,12254.97
249,718.84,12228.1
250,720.7,12189.23
251,722.55,12199.27
252,724.41,12161.53
253,726.26,12183.73
254,728.11,12211.13
255,729.97,12262.97
256,731.82,12317.73
257,733.67,12380.8
258,735.52,12408.6
259,737.36,12352.3
260,739.21,12245.5
261,741.06,12159.33
262,742.9,12041.07
263,744.75,11929.7
264,746.59,11890.73
265,748.43,11821.83
266,750.27,11773.07
267,752.11,11738.93
268,753.95,11697.7
269,755.79,11695.27
270,757.63,11657.3
271,759.46,11643.4
272,761.3,11579.37
273,763.13,11530.3
274,764.97,11546.6
275,766.8,11510.87
276,768.63,11491.43
277,770.46,11504
278,772.29,11453.17
279,774.12,11437.13
280,775.95,11412.43
281,777.78,11426.47
282,779.6,11440.4
283,781.43,11425.6
284,783.25,11416
285,785.08,11422.87
286,786.9,11379.87
287,788.72,11405.97
288,790.54,11373.07
289,792.36,11353.1
290,794.18,11363.23
291,796,11344
292,797.81,11311.43
293,799.63,11314.4
294,801.44,11295.23
295,803.26,11332.5
296,805.07,11352.83
297,806.88,11420.63
298,808.69,11499.13
299,810.5,11543.73
300,812.31,11629.3
301,814.12,11675.1
302,815.93,11745.8
303,817.74,11742.87
304,819.54,11736.73
305,821.35,11687.2
306,823.15,11608.23
307,824.95,11577.37
308,826.75,11588.23
309,828.55,11531.47
310,830.35,11530.83
311,832.15,11490.77
312,833.95,11490.23
313,835.75,11483.7
314,837.54,11512.9
315,839.34,11540.5
316,841.13,11591.83
317,842.92,11636.03
318,844.72,11686.17
319,846.51,11723.9
320,848.3,11772.2
321,850.09,11766.6
322,851.88,11792.47
323,853.66,11770.83
324,855.45,11710.27
325,857.24,11621.83
326,859.02,11492.9
327,860.8,11429.63
328,862.59,11363.97
329,864.37,11272.33
330,866.15,11197.3
331,867.93,11123.4
332,869.71,11026.87
333,871.49,10906.5
334,873.26,10835.17
335,875.04,10783.03
336,876.81,10658.43
337,878.59,10616.37
338,880.36,10545.73
339,882.13,10421.27
340,883.9,10389.73
341,885.68,10350.87
342,887.44,10300.03
343,889.21,10284.43
344,890.98,10233.1
345,892.75,10180.23
346,894.51,10112.53
347,896.28,10114.77
348,898.04,10085.53
349,899.8,10037.1
350,901.57,10050.73
351,903.33,9985.7
352,905.09,9942.03
353,906.85,9962.93
354,908.6,9946.6
355,910.36,9941.6
356,912.12,9937.03
357,913.87,9946.7
358,915.63,9941.83
359,917.38,9907.37
360,919.13,9910.1
361,920.88,9925.47
362,922.63,9944.03
363,924.38,9965.47
364,926.13,9958.17
365,927.88,9949.07
366,929.63,9935.3
367,931.37,9966.23
368,933.12,9958.9
369,934.86,9916.33
370,936.6,9913.43
371,938.35,9873.23
372,940.09,9855.93
373,941.83,9811
374,943.57,9810.6
375,945.3,9774.6
376,947.04,9765.77
377,948.78,9748.83
378,950.51,9703.23
379,952.25,9711.1
380,953.98,9667.23
381,955.71,9651.5
382,957.44,9606.83
383,959.17,9624.2
384,960.9,9567.77
385,962.63,9571.3
386,964.36,9509.57
387,966.09,9517.37
388,967.81,9476.43
389,969.54,9453.17
390,971.26,9439.8
391,972.98,9406.6
392,974.71,9374.07
393,976.43,9377.1
394,978.15,9315.27
395,979.87,9308.63
396,981.58,9307.53
397,983.3,9285.07
398,985.02,9254.87
399,986.73,9206.93
400,988.45,9250.93
401,990.16,9288.43
402,991.87,9336.33
403,993.59,9516.37
404,995.3,9765.7
405,997.01,10072.13
406,998.71,10397.07
407,1000.42,10620.93
408,1002.13,10609.7
409,1003.83,10427.97
410,1005.54,10095.83
411,1007.24,9688.1
412,1008.95,9378.7
413,1010.65,9132.27
414,1012.35,8982.5
415,1014.05,8866.13
416,1015.75,8868.4
417,1017.45,8837.73
418,1019.14,8815.5
419,1020.84,8833.5
420,1022.54,8880.7
421,1024.23,8905.03
422,1025.92,8971.2
423,1027.62,8958.77
424,1029.31,8932.97
425,1031,8904.03
426,1032.69,8891.03
427,1034.38,8858.9
428,1036.06,8850.93
429,1037.75,8860
430,1039.44,8841.23
431,1041.12,8879.93
432,1042.81,8882.97
433,1044.49,8898.43
434,1046.17,8920.4
435,1047.85,8887.3
436,1049.53,8876.83
437,1051.21,8837.9
438,1052.89,8806.9
439,1054.57,8768.8
440,1056.24,8720.6
441,1057.92,8679.17
442,1059.59,8596.17
443,1061.27,8591.3
444,1062.94,8492.2
445,1064.61,8412.23
446,1066.28,8331.37
447,1067.95,8239.6
448,1069.62,8173.73
449,1071.29,8103.07
450,1072.95,8069.83
451,1074.62,7983.23
452,1076.29,7943.33
453,1077.95,7937.47
454,1079.61,7904.9
455,1081.27,7873.83
456,1082.94,7867.1
457,1084.6,7799.27
458,1086.26,7770.53
459,1087.91,7742.87
460,1089.57,7708.53
461,1091.23,7695.9
462,1092.88,7668.47
463,1094.54,7645.77
464,1096.19,7581.07
465,1097.84,7536.83
466,1099.49,7508.5
467,1101.15,7509.93
468,1102.79,7488.2
469,1104.44,7524.23
470,1106.09,7501
471,1107.74,7506.83
472,1109.38,7486.43
473,1111.03,7505
474,1112.67,7505.9
475,1114.32,7503.17
476,1115.96,7491.37
477,1117.6,7435.53
478,1119.24,7417.53
479,1120.88,7407.1
480,1122.52,7361.57
481,1124.15,7347.13
482,1125.79,7303.7
483,1127.43,7268.93
484,1129.06,7226.57
485,1130.69,7183.27
486,1132.33,7141.6
487,1133.96,7126.63
488,1135.59,7078.13
489,1137.22,7053.27
490,1138.85,6984.23
491,1140.47,6944.67
492,1142.1,6931.33
493,1143.73,6919.47
494,1145.35,6887.5
495,1146.98,6886.33
496,1148.6,6885.53
497,1150.22,6859.93
498,1151.84,6845.07
499,1153.46,6871
500,1155.08,6849.2
501,1156.7,6856.6
502,1158.32,6834.97
503,1159.93,6841.6
504,1161.55,6803.63
505,1163.16,6791.7
506,1164.78,6823.93
507,1166.39,6836.17
508,1168,6822.93
509,1169.61,6841.23
510,1171.22,6803.17
511,1172.83,6765.13
512,1174.44,6750.27
513,1176.04,6704.87
514,1177.65,6649.33
515,1179.26,6637.1
516,1180.86,6622.8
517,1182.46,6584.8
518,1184.06,6542.37
519,1185.67,6510.43
520,1187.27,6529.77
521,1188.86,6501.23
522,1190.46,6501.63
523,1192.06,6516.07
524,1193.66,6508.3
525,1195.25,6452.63
526,1196.85,6488.97
527,1198.44,6484.87
528,1200.03,6476.9
529,1201.62,6491.23
530,1203.21,6493.83
531,1204.8,6479.2
532,1206.39,6475.7
533,1207.98,6455.63
534,1209.57,6438.27
535,1211.15,6446.7
536,1212.74,6397.27
537,1214.32,6381.17
538,1215.91,6326.7
539,1217.49,6323.9
540,1219.07,6282.2
541,1220.65,6262.03
542,1222.23,6263.23
543,1223.81,6226.2
544,1225.38,6210.2
545,1226.96,6185.57
546,1228.53,6159.67
547,1230.11,6165.97
548,1231.68,6117.73
549,1233.25,6122.87
550,1234.83,6120.9
551,1236.4,6102.23
552,1237.97,6084.03
553,1239.54,6081.6
554,1241.1,6065.2
555,1242.67,6071.13
556,1244.24,6039.43
557,1245.8,5997.47
558,1247.36,5963.1
559,1248.93,5934.7
560,1250.49,5928.83
561,1252.05,5916.33
562,1253.61,5892.5
563,1255.17,5850.83
564,1256.73,5811.93
565,1258.28,5763.83
566,1259.84,5761.07
567,1261.4,5750.9
568,1262.95,5735.63
569,1264.5,5704.13
570,1266.06,5650.7
571,1267.61,5604.13
572,1269.16,5601.43
573,1270.71,5581.2
574,1272.26,5540.73
575,1273.8,5531.87
576,1275.35,5507.9
577,1276.9,5481.97
578,1278.44,5464.63
579,1279.99,5452.3
580,1281.53,5410.13
581,1283.07,5372.6
582,1284.61,5348.17
583,1286.15,5333.53
584,1287.69,5317.27
585,1289.23,5260.4
586,1290.77,5215.83
587,1292.3,5171.63
588,1293.84,5132.53
589,1295.37,5089.43
590,1296.9,5054.93
591,1298.44,5024.03
592,1299.97,5011.6
593,1301.5,4958.5
594,1303.03,4956
595,1304.56,4924.73
596,1306.08,4908.57
597,1307.61,4869.77
598,1309.14,4871.6
599,1310.66,4835.23
600,1312.19,4806.5
601,1313.71,4797.53
602,1315.23,4791.23
603,1316.75,4766.67
604,1318.27,4689.37
605,1319.79,4688.07
606,1321.31,4672.67
607,1322.83,4629.33
608,1324.34,4628.07
609,1325.86,4585.2
610,1327.37,4572.03
611,1328.88,4522.3
612,1330.4,4500.6
613,1331.91,4490.33
614,1333.42,4450.8
615,1334.93,4442.87
616,1336.44,4414.13
617,1337.94,4392.6
618,1339.45,4349.7
619,1340.96,4304.97
620,1342.46,4319.17
621,1343.97,4289.63
622,1345.47,4268.37
623,1346.97,4216.47
624,1348.47,4172
625,1349.97,4147.77
626,1351.47,4127.23
627,1352.97,4118.1
628,1354.46,4099.77
629,1355.96,4040.57
630,1357.46,4028.47
631,1358.95,4003.93
632,1360.44,3971.07
633,1361.94,3951.13
634,1363.43,3938.8
635,1364.92,3960.93
636,1366.41,3876.53
637,1367.9,3868.83
638,1369.38,3868.77
639,1370.87,3825.27
640,1372.36,3838.13
641,1373.84,3837.67
642,1375.32,3802.67
643,1376.81,3777.1
644,1378.29,3770.4
645,1379.77,3784.77
646,1381.25,3782.5
647,1382.73,3779.87
648,1384.21,3788.3
649,1385.68,3776.33
650,1387.16,3711.8
651,1388.63,3667.47
652,1390.11,3696.67
653,1391.58,3677.7
654,1393.05,3655.03
655,1394.53,3656.37
656,1396,3635.6
657,1397.46,3599.4
658,1398.93,3604.1
659,1400.4,3576.27
660,1401.87,3605.97
661,1403.33,3619.4
662,1404.8,3611.7
663,1406.26,3593.63
664,1407.72,3587.1
665,1409.19,3581.5
666,1410.65,3563.13
667,1412.11,3592.2
668,1413.57,3566.33
669,1415.02,3577.97
670,1416.48,3549.23
671,1417.94,3536.13
672,1419.39,3533.1
673,1420.85,3509.4
674,1422.3,3554.2
675,1423.75,3511.47
676,1425.2,3515.03
677,1426.65,3481.07
678,1428.1,3579.4
679,1429.55,3495.03
680,1431,3475.8
681,1432.44,3493.4
682,1433.89,3480.67
683,1435.33,3488.97
684,1436.78,3472.93
685,1438.22,3480
686,1439.66,3463.23
687,1441.1,3483.8
688,1442.54,3484.73
689,1443.98,3475.6
690,1445.42,3488.9
691,1446.86,3480.83
692,1448.29,3472.2
693,1449.73,3473.27
694,1451.16,3511.1
695,1452.59,3518.97
696,1454.03,3536.4
697,1455.46,3521
698,1456.89,3571.33
699,1458.32,3613.23
700,1459.75,3642.93
701,1461.17,3664.57
702,1462.6,3674.47
703,1464.02,3669.87
704,1465.45,3657
705,1466.87,3636.33
706,1468.3,3634.57
707,1469.72,3606.2
708,1471.14,3562.17
709,1472.56,3548.67
710,1473.98,3478.23
711,1475.39,3467.93
712,1476.81,3407.67
713,1478.23,3369.4
714,1479.64,3292.73
715,1481.06,3246.07
716,1482.47,3223.47
717,1483.88,3166.53
718,1485.29,3142.27
719,1486.7,3141.87
720,1488.11,3084.47
721,1489.52,3105.1
722,1490.93,3071.7
723,1492.33,3037.6
724,1493.74,3028.43
725,1495.14,3052.73
726,1496.55,3051.5
727,1497.95,3046.63
728,1499.35,3034.73
729,1500.75,3022.63
730,1502.15,3031.1
731,1503.55,3036.43
732,1504.95,3045.4
733,1506.34,2999.67
734,1507.74,3015.93
735,1509.14,3000.67
736,1510.53,2996.5
737,1511.92,2993.2
738,1513.31,2996.8
739,1514.71,3002.03
740,1516.1,2996.23
741,1517.48,3006.43
742,1518.87,2994.3
743,1520.26,2969.8
744,1521.65,2977.37
745,1523.03,2962.87
746,1524.42,2961.27
747,1525.8,2975.53
748,1527.18,2949.8
749,1528.56,2984.23
750,1529.94,2940.2
751,1531.32,2941.6
752,1532.7,2963.23
753,1534.08,2923
754,1535.46,2962.53
755,1536.83,2940.63
756,1538.21,2956.3
757,1539.58,2942.23
758,1540.95,2918.37
759,1542.33,2930.63
760,1543.7,2933.53
761,1545.07,2918.93
762,1546.44,2920.47
763,1547.81,2912.83
764,1549.17,2937.57
765,1550.54,2934.7
766,1551.9,2950.33
767,1553.27,2945.5
768,1554.63,2949.17
769,1555.99,2950.37
770,1557.36,2929.23
771,1558.72,2938.33
772,1560.08,2982.27
773,1561.43,2931.6
774,1562.79,2967.43
775,1564.15,2960.73
776,1565.5,2950.8
777,1566.86,2937.77
778,1568.21,2977.6
779,1569.57,2955.47
780,1570.92,2952.57
781,1572.27,2983.7
782,1573.62,2993.5
783,1574.97,2963.13
784,1576.32,2972.93
785,1577.66,2997.07
786,1579.01,2992.07
787,1580.35,3042.93
788,1581.7,3046.87
789,1583.04,3031.97
790,1584.38,3052.8
791,1585.73,3075.57
792,1587.07,3120.77
793,1588.41,3161.2
794,1589.74,3194.27
795,1591.08,3208.5
796,1592.42,3201.4
797,1593.75,3232.27
798,1595.09,3233.4
799,1596.42,3283.43
800,1597.76,3285.57
801,1599.09,3306.87
802,1600.42,3324.63
803,1601.75,3300.07
804,1603.08,3331.37
805,1604.41,3357.13
806,1605.73,3360.57
807,1607.06,3398.73
808,1608.38,3411.5
809,1609.71,3362.3
810,1611.03,3394.93
811,1612.35,3380.2
812,1613.68,3428.17
813,1615,3396.73
814,1616.32,3409.5
815,1617.63,3418.73
816,1618.95,3385.87
817,1620.27,3406.27
818,1621.58,3409.73
819,1622.9,3382.43
820,1624.21,3399.5
821,1625.52,3415.27
822,1626.84,3407.03
823,1628.15,3415.03
824,1629.46,3389.27
825,1630.77,3394.93
826,1632.07,3376.73
827,1633.38,3393.77
828,1634.69,3377.17
829,1635.99,3370.07
830,1637.3,3393.5
831,1638.6,3361.87
832,1639.9,3360.1
833,1641.2,3397.13
834,1642.5,3373.03
835,1643.8,3406.17
836,1645.1,3323.4
837,1646.4,3340.17
838,1647.7,3344.23
839,1648.99,3362.03
840,1650.29,3327.37
841,1651.58,3338.77
842,1652.87,3341.13
843,1654.16,3292.4
844,1655.45,3295.3
845,1656.74,3287.03
846,1658.03,3279.33
847,1659.32,3276.27
848,1660.61,3229.53
849,1661.89,3209.63
850,1663.18,3181.8
851,1664.46,3156
852,1665.75,3129.37
853,1667.03,3118
854,1668.31,3133.9
855,1669.59,3094.83
856,1670.87,3048.6
857,1672.15,3052.3
858,1673.43,3042.47
859,1674.7,3004.77
860,1675.98,3014.3
861,1677.25,2982.73
862,1678.53,2922.1
863,1679.8,2900.73
864,1681.07,2903.67
865,1682.34,2870.03
866,1683.61,2874.87
867,1684.88,2856.13
868,1686.15,2815.27
869,1687.41,2772.73
870,1688.68,2766.53
871,1689.95,2759.9
872,1691.21,2728.4
873,1692.47,2731.7
874,1693.73,2689.27
875,1695,2661.03
876,1696.26,2644.87
877,1697.52,2617.67
878,1698.77,2644.77
879,1700.03,2569.87
880,1701.29,2590.53
881,1702.54,2564.8
882,1703.8,2543.63
883,1705.05,2505.23
884,1706.3,2501.87
885,1707.55,2485.2
886,1708.81,2448.9
887,1710.06,2456.23
888,1711.3,2451.83
889,1712.55,2418.97
890,1713.8,2435.73
891,1715.04,2408.97
892,1716.29,2366.6
893,1717.53,2376.73
894,1718.78,2353.5
895,1720.02,2342.87
896,1721.26,2312.13
897,1722.5,2328
898,1723.74,2284.87
899,1724.98,2293.37
900,1726.21,2288.97
901,1727.45,2278
902,1728.69,2223.47
903,1729.92,2245.27
904,1731.15,2266.6
905,1732.39,2233.73
906,1733.62,2238.47
907,1734.85,2230.47
908,1736.08,2220.77
909,1737.31,2196.27
910,1738.54,2199.57
911,1739.76,2214.27
912,1740.99,2193.8
913,1742.21,2195.13
914,1743.44,2190.87
915,1744.66,2193.5
916,1745.88,2163.6
917,1747.1,2174.2
918,1748.32,2164.5
919,1749.54,2178.37
920,1750.76,2189.57
921,1751.98,2172.13
922,1753.19,2151.03
923,1754.41,2129.07
924,1755.62,2122.63
925,1756.84,2155.67
926,1758.05,2194.53
927,1759.26,2182.9
928,1760.47,2187.87
929,1761.68,2187.3
930,1762.89,2183.43
931,1764.1,2204.53
932,1765.3,2233.1
933,1766.51,2240.6
934,1767.71,2259.9
935,1768.92,2242.27
936,1770.12,2253.5
937,1771.32,2278.47
938,1772.52,2298.9
939,1773.72,2329.47
940,1774.92,2331.2
941,1776.12,2328.5
942,1777.32,2351.37
943,1778.51,2381.53
944,1779.71,2410.77
945,1780.9,2395.9
946,1782.1,2455.43
947,1783.29,2460.53
948,1784.48,2443.33
949,1785.67,2449.33
950,1786.86,2463.8
951,1788.05,2461.27
952,1789.24,2490.2
953,1790.42,2492.43
954,1791.61,2489.3
955,1792.79,2458.53
956,1793.98,2491.63
957,1795.16,2485.27
958,1796.34,2474.47
959,1797.52,2473.97
960,1798.7,2480.2
961,1799.88,2452.4
962,1801.06,2415.9
963,1802.24,2374.43
964,1803.41,2398.1
965,1804.59,2358.43
966,1805.76,2379.67
967,1806.94,2341.07
968,1808.11,2308.77
969,1809.28,2298.53
970,1810.45,2292.3
971,1811.62,2250.27
972,1812.79,2258.1
973,1813.96,2246.67
974,1815.12,2237.2
975,1816.29,2181.47
976,1817.45,2164.37
977,1818.62,2114.93
978,1819.78,2110.5
979,1820.94,2127.57
980,1822.1,2084.23
981,1823.26,2067.63
982,1824.42,2026.53
983,1825.58,2024.7
984,1826.73,2026.53
985,1827.89,2031.17
986,1829.05,2022.83
987,1830.2,1967.57
988,1831.35,1939.9
989,1832.51,1937.2
990,1833.66,1956.53
991,1834.81,1933.43
992,1835.96,1929.93
993,1837.1,1930.93
994,1838.25,1891.83
995,1839.4,1892.5
996,1840.54,1894.27
997,1841.69,1883.67
998,1842.83,1857.73
999,1843.97,1844
1000,1845.12,1851.83
1001,1846.26,1838.2
1002,1847.4,1824.93
1003,1848.54,1828.97
1004,1849.67,1849.4
1005,1850.81,1850.17
1006,1851.95,1836.53
1007,1853.08,1824.07
1008,1854.22,1809.13
1009,1855.35,1816.87
1010,1856.48,1792.43
1011,1857.61,1789.53
1012,1858.74,1805.6
1013,1859.87,1790.6
1014,1861,1780.4
1015,1862.13,1764.33
1016,1863.25,1755.43
1017,1864.38,1755.1
1018,1865.5,1748.67
1019,1866.63,1750.3
1020,1867.75,1741.3
1021,1868.87,1728.43
1022,1869.99,1727.53
1023,1871.11,1722.83
1024,1872.23,1713.97
